   Wave (A)    Irradiance(ergs_s^-1_cm^-2_A^-1)
   1195.000    8.8615E-03
   1205.000    6.9450E-02
   1215.000    6.0810E-01
   1225.000    1.4370E-01
   1235.000    6.2695E-03
   1245.000    4.0755E-03
   1255.000    3.3780E-03
   1265.000    4.1625E-03
   1275.000    2.4150E-03
   1285.000    1.9545E-03
   1295.000    4.6680E-03
   1305.000    1.3810E-02
   1315.000    4.4810E-03
   1325.000    4.6495E-03
   1335.000    1.9305E-02
   1345.000    5.0630E-03
   1355.000    4.1965E-03
   1365.000    3.4325E-03
   1375.000    3.2260E-03
   1385.000    4.4945E-03
   1395.000    8.8990E-03
   1405.000    6.8195E-03
   1415.000    4.6125E-03
   1425.000    5.1210E-03
   1435.000    5.5790E-03
   1445.000    5.5705E-03
   1455.000    6.0395E-03
   1465.000    7.6935E-03
   1475.000    9.1945E-03
   1485.000    8.8510E-03
   1495.000    8.6170E-03
   1505.000    9.3970E-03
   1515.000    1.0007E-02
   1525.000    1.2685E-02
   1535.000    1.4125E-02
   1545.000    2.2625E-02
   1555.000    2.3435E-02
   1565.000    1.9820E-02
   1575.000    1.8435E-02
   1585.000    1.7945E-02
   1595.000    1.8710E-02
   1605.000    2.0700E-02
   1615.000    2.3815E-02
   1625.000    2.7030E-02
   1635.000    3.0875E-02
   1645.000    3.2145E-02
   1655.000    4.6160E-02
   1665.000    4.2740E-02
   1675.000    4.1415E-02
   1685.000    4.8405E-02
   1695.000    6.2390E-02
   1705.000    7.0175E-02
   1715.000    7.3305E-02
   1725.000    7.7200E-02
   1735.000    8.1255E-02
   1745.000    9.6355E-02
   1755.000    1.1470E-01
   1765.000    1.2990E-01
   1775.000    1.4970E-01
   1785.000    1.6460E-01
   1795.000    1.6850E-01
   1805.000    1.9605E-01
   1815.000    2.3990E-01
   1825.000    2.3965E-01
   1835.000    2.3920E-01
   1845.000    2.1935E-01
   1855.000    2.4535E-01
   1865.000    2.8700E-01
   1875.000    3.1980E-01
   1885.000    3.4945E-01
   1895.000    3.7935E-01
   1905.000    3.9925E-01
   1915.000    4.4220E-01
   1925.000    4.3775E-01
   1935.000    4.0320E-01
   1945.000    5.5310E-01
   1955.000    5.7685E-01
   1965.000    6.3705E-01
   1975.000    6.5715E-01
   1985.000    6.5555E-01
   1995.000    7.0520E-01
   2005.000    7.7565E-01
   2015.000    8.4975E-01
   2025.000    8.7310E-01
   2035.000    9.7430E-01
   2045.000    1.0835E+00
   2055.000    1.1160E+00
   2065.000    1.1720E+00
   2075.000    1.3410E+00
   2085.000    1.5850E+00
   2095.000    2.2330E+00
   2105.000    2.9165E+00
   2115.000    3.5010E+00
   2125.000    3.2705E+00
   2135.000    3.4465E+00
   2145.000    4.1725E+00
   2155.000    3.7715E+00
   2165.000    3.3635E+00
   2175.000    3.6665E+00
   2185.000    4.6215E+00
   2195.000    4.8890E+00
   2205.000    4.9330E+00
   2215.000    4.1195E+00
   2225.000    5.1570E+00
   2235.000    6.5405E+00
   2245.000    6.1255E+00
   2255.000    5.4450E+00
   2265.000    4.1100E+00
   2275.000    4.1340E+00
   2285.000    5.3965E+00
   2295.000    4.9550E+00
   2305.000    5.4160E+00
   2315.000    5.2955E+00
   2325.000    5.5275E+00
   2335.000    4.6635E+00
   2345.000    4.0555E+00
   2355.000    5.3350E+00
   2365.000    5.0550E+00
   2375.000    5.0410E+00
   2385.000    4.3610E+00
   2395.000    4.5940E+00
   2405.000    4.1095E+00
   2415.000    5.3265E+00
   2425.000    7.3245E+00
   2435.000    6.9055E+00
   2445.000    6.3400E+00
   2455.000    5.1465E+00
   2465.000    5.2450E+00
   2475.000    5.7705E+00
   2485.000    4.7485E+00
   2495.000    5.8590E+00
   2505.000    6.2665E+00
   2515.000    4.8065E+00
   2525.000    4.3185E+00
   2535.000    5.3615E+00
   2545.000    6.1960E+00
   2555.000    8.2240E+00
   2565.000    1.0550E+01
   2575.000    1.3010E+01
   2585.000    1.2980E+01
   2595.000    1.0850E+01
   2605.000    8.9155E+00
   2615.000    9.3045E+00
   2625.000    1.0800E+01
   2635.000    1.6955E+01
   2645.000    2.5910E+01
   2655.000    2.6255E+01
   2665.000    2.5895E+01
   2675.000    2.6060E+01
   2685.000    2.5335E+01
   2695.000    2.4810E+01
   2705.000    2.7760E+01
   2715.000    2.3295E+01
   2725.000    2.0485E+01
   2735.000    2.0535E+01
   2745.000    1.3815E+01
   2755.000    1.8155E+01
   2765.000    2.5205E+01
   2775.000    2.4330E+01
   2785.000    1.6540E+01
   2795.000    9.0585E+00
   2805.000    9.9785E+00
   2815.000    2.1690E+01
   2825.000    3.0475E+01
   2835.000    3.2530E+01
   2845.000    2.4475E+01
   2855.000    1.6960E+01
   2865.000    3.3340E+01
   2875.000    3.4790E+01
   2885.000    3.3290E+01
   2895.000    4.8920E+01
   2905.000    6.2255E+01
   2915.000    6.0180E+01
   2925.000    5.3950E+01
   2935.000    5.5450E+01
   2945.000    5.2680E+01
   2955.000    5.7115E+01
   2965.000    5.2580E+01
   2975.000    5.2465E+01
   2985.000    4.8200E+01
   2995.000    5.0155E+01
   3005.000    4.3615E+01
   3015.000    4.7275E+01
   3025.000    5.0690E+01
   3035.000    6.4455E+01
   3045.000    6.2550E+01
   3055.000    6.1675E+01
   3065.000    5.7705E+01
   3075.000    6.3850E+01
   3085.000    6.3510E+01
   3095.000    5.1645E+01
   3105.000    6.4820E+01
   3115.000    7.5640E+01
   3125.000    6.8080E+01
   3135.000    7.2580E+01
   3145.000    6.8815E+01
   3155.000    6.5685E+01
   3165.000    6.5600E+01
   3175.000    8.0250E+01
   3185.000    6.9035E+01
   3195.000    7.3860E+01
   3205.000    8.3490E+01
   3215.000    7.2595E+01
   3225.000    7.1450E+01
   3235.000    6.8625E+01
   3245.000    7.8960E+01
   3255.000    9.0990E+01
   3265.000    1.0155E+02
   3275.000    9.8830E+01
   3285.000    9.5210E+01
   3295.000    1.1000E+02
   3305.000    1.0535E+02
   3315.000    1.0014E+02
   3325.000    9.9070E+01
   3335.000    9.5490E+01
   3345.000    9.9390E+01
   3355.000    9.7755E+01
   3365.000    8.3960E+01
   3375.000    8.7360E+01
   3385.000    9.5600E+01
   3395.000    9.9445E+01
   3405.000    1.0430E+02
   3415.000    9.5850E+01
   3425.000    1.0305E+02
   3435.000    9.8705E+01
   3445.000    8.2690E+01
   3455.000    9.7350E+01
   3465.000    9.6075E+01
   3475.000    9.3520E+01
   3485.000    9.3150E+01
   3495.000    9.2430E+01
   3505.000    1.0875E+02
   3515.000    1.0165E+02
   3525.000    9.4240E+01
   3535.000    1.0715E+02
   3545.000    1.1505E+02
   3555.000    1.0840E+02
   3565.000    9.4270E+01
   3575.000    8.2595E+01
   3585.000    7.2110E+01
   3595.000    1.0305E+02
   3605.000    1.0050E+02
   3615.000    9.1195E+01
   3625.000    1.0355E+02
   3635.000    1.0340E+02
   3645.000    1.0510E+02
   3655.000    1.1965E+02
   3665.000    1.2790E+02
   3675.000    1.2255E+02
   3685.000    1.1435E+02
   3695.000    1.2750E+02
   3705.000    1.1855E+02
   3715.000    1.2200E+02
   3725.000    1.0965E+02
   3735.000    9.5745E+01
   3745.000    9.3685E+01
   3755.000    1.1030E+02
   3765.000    1.1280E+02
   3775.000    1.3305E+02
   3785.000    1.3755E+02
   3795.000    1.1075E+02
   3805.000    1.2455E+02
   3815.000    1.1185E+02
   3825.000    8.1950E+01
   3835.000    7.1095E+01
   3845.000    9.9320E+01
   3855.000    1.0455E+02
   3865.000    1.0430E+02
   3875.000    1.0390E+02
   3885.000    1.0195E+02
   3895.000    1.2145E+02
   3905.000    1.2895E+02
   3915.000    1.3875E+02
   3925.000    1.0570E+02
   3935.000    6.0455E+01
   3945.000    1.0630E+02
   3955.000    1.3605E+02
   3965.000    8.8405E+01
   3975.000    9.5880E+01
   3985.000    1.5765E+02
   3995.000    1.7225E+02
   4005.000    1.7420E+02
   4015.000    1.8120E+02
   4025.000    1.8255E+02
   4035.000    1.7495E+02
   4045.000    1.7380E+02
   4055.000    1.7315E+02
   4065.000    1.6510E+02
   4075.000    1.6880E+02
   4085.000    1.7995E+02
   4095.000    1.7760E+02
   4105.000    1.5040E+02
   4115.000    1.8220E+02
   4125.000    1.7940E+02
   4135.000    1.7600E+02
   4145.000    1.7410E+02
   4155.000    1.7380E+02
   4165.000    1.8470E+02
   4175.000    1.6690E+02
   4185.000    1.6880E+02
   4195.000    1.7050E+02
   4205.000    1.7620E+02
   4215.000    1.8020E+02
   4225.000    1.5860E+02
   4235.000    1.7150E+02
   4245.000    1.7720E+02
   4255.000    1.6990E+02
   4265.000    1.7020E+02
   4275.000    1.5730E+02
   4285.000    1.5910E+02
   4295.000    1.4790E+02
   4305.000    1.1380E+02
   4315.000    1.6900E+02
   4325.000    1.6500E+02
   4335.000    1.7350E+02
   4345.000    1.6740E+02
   4355.000    1.7270E+02
   4365.000    1.9340E+02
   4375.000    1.8110E+02
   4385.000    1.5710E+02
   4395.000    1.8300E+02
   4405.000    1.7170E+02
   4415.000    1.9360E+02
   4425.000    1.9850E+02
   4435.000    1.9140E+02
   4445.000    1.9780E+02
   4455.000    1.8260E+02
   4465.000    1.8960E+02
   4475.000    2.0820E+02
   4485.000    1.9780E+02
   4495.000    2.0320E+02
   4505.000    2.1490E+02
   4515.000    2.1140E+02
   4525.000    1.9460E+02
   4535.000    1.9750E+02
   4545.000    1.9840E+02
   4555.000    2.0390E+02
   4565.000    2.0820E+02
   4575.000    2.1050E+02
   4585.000    1.9760E+02
   4595.000    2.0140E+02
   4605.000    2.0450E+02
   4615.000    2.0600E+02
   4625.000    2.1090E+02
   4635.000    2.0450E+02
   4645.000    1.9810E+02
   4655.000    2.0470E+02
   4665.000    1.9260E+02
   4675.000    2.0200E+02
   4685.000    1.9990E+02
   4695.000    1.9950E+02
   4705.000    1.8820E+02
   4715.000    2.0230E+02
   4725.000    2.0460E+02
   4735.000    1.9960E+02
   4745.000    2.0560E+02
   4755.000    2.0210E+02
   4765.000    1.9610E+02
   4775.000    2.0800E+02
   4785.000    2.0140E+02
   4795.000    2.0810E+02
   4805.000    2.0400E+02
   4815.000    2.0950E+02
   4825.000    2.0280E+02
   4835.000    2.0240E+02
   4845.000    1.9740E+02
   4855.000    1.8350E+02
   4865.000    1.6290E+02
   4875.000    1.8350E+02
   4885.000    1.9190E+02
   4895.000    1.9650E+02
   4905.000    2.0120E+02
   4915.000    1.9010E+02
   4925.000    1.9010E+02
   4935.000    1.8930E+02
   4945.000    2.0630E+02
   4955.000    1.9310E+02
   4965.000    2.0220E+02
   4975.000    2.0230E+02
   4985.000    1.8710E+02
   4995.000    1.9750E+02
   5005.000    1.8620E+02
   5015.000    1.8170E+02
   5025.000    1.8990E+02
   5035.000    1.9390E+02
   5045.000    1.8740E+02
   5055.000    1.9980E+02
   5065.000    1.9660E+02
   5075.000    1.9110E+02
   5085.000    1.9240E+02
   5095.000    1.9210E+02
   5105.000    1.9520E+02
   5115.000    2.0020E+02
   5125.000    1.8720E+02
   5135.000    1.8660E+02
   5145.000    1.8790E+02
   5155.000    1.9050E+02
   5165.000    1.6730E+02
   5175.000    1.7300E+02
   5185.000    1.6580E+02
   5195.000    1.8330E+02
   5205.000    1.8360E+02
   5215.000    1.9110E+02
   5225.000    1.8280E+02
   5235.000    1.8990E+02
   5245.000    1.9630E+02
   5255.000    1.9350E+02
   5265.000    1.6780E+02
   5275.000    1.8330E+02
   5285.000    1.9020E+02
   5295.000    1.9230E+02
   5305.000    1.9570E+02
   5315.000    1.9680E+02
   5325.000    1.7750E+02
   5335.000    1.9280E+02
   5345.000    1.8630E+02
   5355.000    1.9950E+02
   5365.000    1.8760E+02
   5375.000    1.8870E+02
   5385.000    1.9090E+02
   5395.000    1.8370E+02
   5405.000    1.7740E+02
   5415.000    1.8860E+02
   5425.000    1.8300E+02
   5435.000    1.8840E+02
   5445.000    1.8840E+02
   5455.000    1.9060E+02
   5465.000    1.8840E+02
   5475.000    1.8380E+02
   5485.000    1.8680E+02
   5495.000    1.9000E+02
   5505.000    1.8670E+02
   5515.000    1.8760E+02
   5525.000    1.8510E+02
   5535.000    1.8870E+02
   5545.000    1.9030E+02
   5555.000    1.9020E+02
   5565.000    1.8260E+02
   5575.000    1.8510E+02
   5585.000    1.7920E+02
   5595.000    1.8130E+02
   5605.000    1.8480E+02
   5615.000    1.8290E+02
   5625.000    1.8550E+02
   5635.000    1.8660E+02
   5645.000    1.8590E+02
   5655.000    1.8030E+02
   5665.000    1.8340E+02
   5675.000    1.8920E+02
   5685.000    1.8150E+02
   5695.000    1.8650E+02
   5705.000    1.7740E+02
   5715.000    1.8280E+02
   5725.000    1.8970E+02
   5735.000    1.8810E+02
   5745.000    1.8720E+02
   5755.000    1.8350E+02
   5765.000    1.8510E+02
   5775.000    1.8620E+02
   5785.000    1.7880E+02
   5795.000    1.8330E+02
   5805.000    1.8430E+02
   5815.000    1.8580E+02
   5825.000    1.8780E+02
   5835.000    1.8620E+02
   5845.000    1.8650E+02
   5855.000    1.7880E+02
   5865.000    1.8350E+02
   5875.000    1.8530E+02
   5885.000    1.7540E+02
   5895.000    1.6160E+02
   5905.000    1.8180E+02
   5915.000    1.7920E+02
   5925.000    1.8130E+02
   5935.000    1.8010E+02
   5945.000    1.7780E+02
   5955.000    1.7870E+02
   5965.000    1.8100E+02
   5975.000    1.7850E+02
   5985.000    1.7620E+02
   5995.000    1.7790E+02
   6005.000    1.7500E+02
   6015.000    1.7550E+02
   6025.000    1.7230E+02
   6035.000    1.7920E+02
   6045.000    1.7810E+02
   6055.000    1.7680E+02
   6065.000    1.7640E+02
   6075.000    1.7620E+02
   6085.000    1.7470E+02
   6095.000    1.7480E+02
   6105.000    1.7070E+02
   6115.000    1.7500E+02
   6125.000    1.7090E+02
   6135.000    1.6870E+02
   6145.000    1.7170E+02
   6155.000    1.7170E+02
   6165.000    1.6130E+02
   6175.000    1.7110E+02
   6185.000    1.7280E+02
   6195.000    1.7110E+02
   6205.000    1.7380E+02
   6215.000    1.6940E+02
   6225.000    1.7170E+02
   6235.000    1.6700E+02
   6245.000    1.6600E+02
   6255.000    1.6360E+02
   6265.000    1.7010E+02
   6275.000    1.7010E+02
   6285.000    1.7010E+02
   6295.000    1.6810E+02
   6310.000    1.6430E+02
   6330.000    1.6550E+02
   6350.000    1.6600E+02
   6370.000    1.6580E+02
   6390.000    1.6550E+02
   6410.000    1.6180E+02
   6430.000    1.6250E+02
   6450.000    1.6310E+02
   6470.000    1.6070E+02
   6490.000    1.5620E+02
   6510.000    1.6100E+02
   6530.000    1.6030E+02
   6550.000    1.5360E+02
   6570.000    1.3880E+02
   6590.000    1.5530E+02
   6610.000    1.5750E+02
   6630.000    1.5590E+02
   6650.000    1.5640E+02
   6670.000    1.5390E+02
   6690.000    1.5500E+02
   6710.000    1.5200E+02
   6730.000    1.5250E+02
   6750.000    1.5140E+02
   6770.000    1.5120E+02
   6790.000    1.5020E+02
   6810.000    1.4960E+02
   6830.000    1.4830E+02
   6850.000    1.4590E+02
   6870.000    1.4710E+02
   6890.000    1.4650E+02
   6910.000    1.4520E+02
   6930.000    1.4520E+02
   6950.000    1.4400E+02
   6970.000    1.4200E+02
   6990.000    1.4290E+02
   7010.000    1.3900E+02
   7030.000    1.3920E+02
   7050.000    1.4190E+02
   7070.000    1.4040E+02
   7090.000    1.3880E+02
   7110.000    1.3890E+02
   7130.000    1.3770E+02
   7150.000    1.3700E+02
   7170.000    1.3570E+02
   7190.000    1.3310E+02
   7210.000    1.3340E+02
   7230.000    1.3510E+02
   7250.000    1.3530E+02
   7270.000    1.3490E+02
   7290.000    1.3220E+02
   7310.000    1.3290E+02
   7330.000    1.3210E+02
   7350.000    1.3120E+02
   7370.000    1.3100E+02
   7390.000    1.2810E+02
   7410.000    1.2610E+02
   7430.000    1.2890E+02
   7450.000    1.2820E+02
   7470.000    1.2860E+02
   7490.000    1.2730E+02
   7510.000    1.2650E+02
   7530.000    1.2620E+02
   7550.000    1.2580E+02
   7570.000    1.2510E+02
   7590.000    1.2430E+02
   7610.000    1.2400E+02
   7630.000    1.2440E+02
   7650.000    1.2240E+02
   7670.000    1.1880E+02
   7690.000    1.2060E+02
   7710.000    1.2070E+02
   7730.000    1.2110E+02
   7750.000    1.1910E+02
   7770.000    1.1990E+02
   7790.000    1.1900E+02
   7810.000    1.1900E+02
   7830.000    1.1790E+02
   7850.000    1.1830E+02
   7870.000    1.1800E+02
   7890.000    1.1770E+02
   7910.000    1.1610E+02
   7930.000    1.1460E+02
   7950.000    1.1370E+02
   7970.000    1.1550E+02
   7990.000    1.1380E+02
   8010.000    1.1450E+02
   8030.000    1.1320E+02
   8050.000    1.1180E+02
   8070.000    1.1230E+02
   8090.000    1.0980E+02
   8110.000    1.1170E+02
   8130.000    1.1180E+02
   8150.000    1.1100E+02
   8170.000    1.1070E+02
   8190.000    1.0660E+02
   8210.000    1.0830E+02
   8230.000    1.0760E+02
   8250.000    1.0780E+02
   8270.000    1.0790E+02
   8290.000    1.0750E+02
   8310.000    1.0700E+02
   8330.000    1.0350E+02
   8350.000    1.0540E+02
   8370.000    1.0530E+02
   8390.000    1.0430E+02
   8410.000    1.0460E+02
   8430.000    1.0290E+02
   8450.000    1.0340E+02
   8470.000    1.0260E+02
   8490.000    9.7200E+01
   8510.000    1.0040E+02
   8530.000    9.7400E+01
   8550.000    8.7800E+01
   8570.000    1.0120E+02
   8590.000    9.9800E+01
   8610.000    9.9800E+01
   8630.000    1.0000E+02
   8650.000    9.7100E+01
   8670.000    8.8100E+01
   8690.000    9.6800E+01
   8700.000    9.6000E+01
   8720.000    9.5300E+01
   8740.000    9.5600E+01
   8760.000    9.5800E+01
   8780.000    9.3400E+01
   8800.000    9.3500E+01
   8820.000    9.2300E+01
   8840.000    9.3700E+01
   8860.000    9.2200E+01
   8880.000    9.2400E+01
   8900.000    9.2000E+01
   8920.000    9.1100E+01
   8940.000    9.1400E+01
   8960.000    9.1900E+01
   8980.000    8.9400E+01
   9000.000    8.8900E+01
   9020.000    8.9100E+01
   9040.000    8.8100E+01
   9060.000    8.8100E+01
   9080.000    8.5400E+01
   9100.000    8.6500E+01
   9120.000    8.7300E+01
   9140.000    8.6500E+01
   9160.000    8.6000E+01
   9180.000    8.6100E+01
   9200.000    8.3500E+01
   9220.000    8.2800E+01
   9240.000    8.3400E+01
   9260.000    8.3900E+01
   9280.000    8.4500E+01
   9300.000    8.4000E+01
   9320.000    8.4800E+01
   9340.000    8.3500E+01
   9360.000    8.2000E+01
   9380.000    8.2800E+01
   9400.000    8.2100E+01
   9420.000    8.0600E+01
   9440.000    8.2200E+01
   9460.000    8.1700E+01
   9480.000    8.0100E+01
   9500.000    8.0300E+01
   9520.000    7.9600E+01
   9540.000    7.8500E+01
   9560.000    7.9900E+01
   9580.000    7.9600E+01
   9600.000    7.8800E+01
   9620.000    7.8389E+01
   9640.000    7.8179E+01
   9660.000    7.7173E+01
   9680.000    7.7626E+01
   9700.000    7.7208E+01
   9720.000    7.7650E+01
   9740.000    7.5861E+01
   9760.000    7.6495E+01
   9780.000    7.6064E+01
   9800.000    7.5690E+01
   9820.000    7.5963E+01
   9840.000    7.5369E+01
   9860.000    7.5004E+01
   9880.000    7.4735E+01
   9900.000    7.3632E+01
   9920.000    7.4305E+01
   9940.000    7.4201E+01
   9960.000    7.3793E+01
   9980.000    7.3571E+01
  10000.000    7.3238E+01
  10020.000    7.3007E+01
  10040.000    7.1388E+01
  10060.000    6.8994E+01
  10080.000    7.1877E+01
  10100.000    7.1765E+01
  10120.000    7.1373E+01
  10140.000    7.0706E+01
  10160.000    7.0126E+01
  10180.000    6.9876E+01
  10200.000    6.9510E+01
  10220.000    6.9163E+01
  10240.000    6.9816E+01
  10260.000    6.9549E+01
  10280.000    6.9460E+01
  10300.000    6.8424E+01
  10320.000    6.8639E+01
  10340.000    6.6834E+01
  10360.000    6.7944E+01
  10380.000    6.6947E+01
  10400.000    6.6838E+01
  10420.000    6.6829E+01
  10440.000    6.7022E+01
  10460.000    6.5490E+01
  10480.000    6.5921E+01
  10500.000    6.6036E+01
  10520.000    6.5724E+01
  10540.000    6.5118E+01
  10560.000    6.5397E+01
  10580.000    6.3704E+01
  10600.000    6.3856E+01
  10620.000    6.4456E+01
  10640.000    6.3762E+01
  10660.000    6.3093E+01
  10680.000    6.2505E+01
  10700.000    6.1494E+01
  10720.000    6.2414E+01
  10740.000    6.1498E+01
  10760.000    6.1425E+01
  10780.000    6.1019E+01
  10800.000    6.2053E+01
  10820.000    5.9185E+01
  10840.000    5.9995E+01
  10860.000    6.1089E+01
  10880.000    5.8120E+01
  10900.000    6.0287E+01
  10920.000    5.9631E+01
  10940.000    5.5918E+01
  10960.000    5.7406E+01
  10980.000    5.7287E+01
  11000.000    5.8664E+01
  11020.000    5.7378E+01
  11040.000    5.8035E+01
  11060.000    5.7942E+01
  11080.000    5.7657E+01
  11100.000    5.7640E+01
  11120.000    5.6800E+01
  11140.000    5.6862E+01
  11160.000    5.6932E+01
  11180.000    5.6697E+01
  11200.000    5.5525E+01
  11220.000    5.6434E+01
  11240.000    5.6097E+01
  11260.000    5.4657E+01
  11280.000    5.5412E+01
  11300.000    5.4578E+01
  11320.000    5.4915E+01
  11340.000    5.4533E+01
  11360.000    5.4929E+01
  11380.000    5.3727E+01
  11400.000    5.3259E+01
